File: Actinolite__R040063-1__Powder__DIF_File__3301.txt
      Actinolite
Diffraction data computed using the structure from the paper listed below,
along with the cell parameters refined from the powder pattern of R040063
      Evans B W, Yang H
      American Mineralogist 83 (1998) 458-475
      Fe-Mg order-disorder in tremolite-actinolite-ferro-actinolite at ambient
      and high temperature
      Sample: NMNH 93728 from Greiner, Zillertal, Austria in act-talc rock

      CELL PARAMETERS:   9.8387 18.0744  5.2830   90.000  104.708   90.000
      SPACE GROUP: C2/m

           ATOM        X         Y         Z     OCCUPANCY  ISO(B)
            Fe     0.00000   0.08790   0.50000     0.095     0.482
            Mn     0.00000   0.08790   0.50000     0.002     0.482
            Mg     0.00000   0.08790   0.50000     0.903     0.482
            Fe     0.00000   0.17700   0.00000     0.092     0.452
            Mn     0.00000   0.17700   0.00000     0.003     0.452
            Mg     0.00000   0.17700   0.00000     0.873     0.452
            Al     0.00000   0.17700   0.00000     0.031     0.452
            Ti     0.00000   0.17700   0.00000     0.001     0.452
            Fe     0.00000   0.00000   0.00000     0.095     0.428
            Mg     0.00000   0.00000   0.00000     0.905     0.428
            Fe     0.00000   0.27690   0.50000     0.053     0.827
            Mn     0.00000   0.27690   0.50000     0.003     0.827
            Mg     0.00000   0.27690   0.50000     0.011     0.827
            Ca     0.00000   0.27690   0.50000     0.901     0.827
            Na     0.00000   0.27690   0.50000     0.032     0.827
            Si     0.28050   0.08410   0.29580     0.985     0.342
            Al     0.28050   0.08410   0.29580     0.015     0.342
            Si     0.28900   0.17100   0.80390     1.000     0.396
            K      0.04800   0.50000   0.04900     0.007     1.500
            Na     0.04800   0.50000   0.04900     0.030     1.500
            H      0.19000   0.00000   0.76500     0.970     1.000
            O      0.11160   0.08650   0.21630     1.000     0.505
            O      0.11910   0.17150   0.72450     1.000     0.556
            O      0.11000   0.00000   0.71570     1.000     0.605
            O      0.36630   0.24770   0.79120     1.000     0.720
            O      0.34680   0.13420   0.09870     1.000     0.602
            O      0.34400   0.11840   0.58800     1.000     0.696
            O      0.33670   0.00000   0.29070     1.000     0.659

            X-RAY WAVELENGTH:     1.541838
            BOUNDS ON TWO THETA:    5.0  90.0
            LIMITS IMPOSED ON THE INDICES ARE:  +/-  8 +/- 16 +/-  4
            MAX. ABS. INTENSITY / VOLUME**2:      6.62016
            The INTENSITY cut off value is   1.00

               2-THETA      INTENSITY    D-SPACING   H   K   L
                 9.79         37.85        9.0372    0   2   0
                10.51         80.79        8.4205    1   1   0
                17.35          4.26        5.1099    0   0   1
                17.42         10.43        5.0904    1   3   0
                18.17         29.36        4.8819   -1   1   1
                18.65          2.64        4.7582    2   0   0
                19.65         23.02        4.5186    0   4   0
                19.96          1.30        4.4481    0   2   1
                21.10          8.24        4.2102    2   2   0
                22.06          2.49        4.0297   -2   0   1
                22.29          2.99        3.9890    1   1   1
                22.92         22.29        3.8794   -1   3   1
                26.34         50.81        3.3839    1   3   1
                27.22         35.42        3.2765    2   4   0
                28.57         64.76        3.1244    3   1   0
                28.70          1.92        3.1106    2   0   1
                29.55          1.84        3.0232   -3   1   1
                30.37          4.94        2.9434   -1   5   1
                30.39         36.34        2.9412    2   2   1
                31.88          9.90        2.8068    3   3   0
                32.77         22.29        2.7328   -3   3   1
                33.07        100.00        2.7086    1   5   1
                34.56         35.58        2.5950    0   6   1
                35.12          6.86        2.5549    0   0   2
                35.41         57.84        2.5352   -2   0   2
                36.55          1.63        2.4586    0   2   2
                36.82          2.22        2.4409   -2   2   2
                37.27          2.32        2.4128   -2   6   1
                37.30          1.04        2.4107    3   1   1
                37.43          1.01        2.4028   -4   0   1
                37.73          6.52        2.3843    3   5   0
                38.50         34.64        2.3384   -3   5   1
                38.78         14.30        2.3221   -4   2   1
                39.15         15.08        2.3009   -1   7   1
                39.59         19.02        2.2764   -3   1   2
                39.97          1.10        2.2556    3   3   1
                40.81          6.22        2.2110   -2   4   2
                41.35          5.00        2.1833    1   7   1
                41.65          1.23        2.1684    1   3   2
                41.74         29.81        2.1640    2   6   1
                42.14          3.25        2.1444   -3   3   2
                42.38          2.72        2.1326   -1   5   2
                44.29         16.84        2.0449    2   0   2
                44.92         14.10        2.0181    3   5   1
                44.99          9.38        2.0148   -4   0   2
                45.28          5.87        2.0025    3   7   0
                45.95          1.76        1.9751   -3   7   1
                46.16          1.29        1.9666   -4   2   2
                46.20          4.90        1.9650    1   9   0
                46.90          3.39        1.9373   -3   5   2
                47.14          1.67        1.9281    4   2   1
                48.07          6.49        1.8928    5   1   0
                48.46          2.42        1.8784   -4   6   1
                48.77         10.47        1.8671   -1   9   1
                48.89          2.49        1.8630    2   4   2
                49.36          3.60        1.8463   -1   7   2
                49.53          3.53        1.8402   -4   4   2
                50.27          4.05        1.8149    5   3   0
                50.49          2.16        1.8074    0  10   0
                52.39          5.43        1.7464   -5   1   2
                53.31          1.66        1.7183   -5   5   1
                53.42          1.33        1.7152   -3   7   2
                53.80          1.78        1.7040    0  10   1
                54.19          1.12        1.6925    0   8   2
                54.39          6.66        1.6867   -2   8   2
                54.43          7.07        1.6856   -1   3   3
                54.63          1.11        1.6800   -3   9   1
                54.85          5.56        1.6738    0   2   3
                55.68         24.65        1.6508    4   6   1
                56.14          6.78        1.6383    4   8   0
                56.86         12.67        1.6192    1  11   0
                58.16          4.18        1.5861    6   0   0
                58.44         22.14        1.5793   -1   5   3
                59.12          1.10        1.5628    2  10   1
                59.33          1.01        1.5577   -5   7   1
                59.43          5.11        1.5553    4   0   2
                60.37         10.15        1.5332   -6   0   2
                60.97          4.01        1.5196    1   9   2
                61.23         20.30        1.5138   -2   6   3
                61.57         10.40        1.5062    0  12   0
                61.68          2.54        1.5037   -4   8   2
                61.75          5.13        1.5023    5   5   1
                62.66          1.31        1.4827    0   6   3
                63.18          1.80        1.4717   -2  10   2
                63.23          3.63        1.4706    4   4   2
                63.34          1.64        1.4684    2   2   3
                63.45          1.15        1.4661    3   7   2
                63.79          4.43        1.4590    3  11   0
                64.14          3.05        1.4519   -6   4   2
                64.14          3.19        1.4519   -1   7   3
                64.32          1.18        1.4483   -3  11   1
                64.78          1.16        1.4392    4  10   0
                64.82         29.06        1.4383   -6   6   1
                65.44          1.52        1.4262   -5   3   3
                66.86          1.21        1.3993    6   2   1
                68.78         11.47        1.3650    5   1   2
                69.06          4.73        1.3600   -5   5   3
                69.32          2.67        1.3556    7   1   0
                70.14          7.33        1.3417    1  11   2
                70.19          1.17        1.3408   -1  13   1
                70.49          4.12        1.3359   -3  11   2
                70.55          2.63        1.3348    5   3   2
                70.59          5.30        1.3343    2   6   3
                71.39          2.13        1.3213   -5   9   2
                71.59          1.04        1.3180   -7   3   2
                72.11          7.85        1.3099   -7   5   1
                72.27          5.98        1.3073   -1   1   4
                72.86          1.09        1.2981    6   8   0
                72.90          5.57        1.2975    0  12   2
                73.08         13.78        1.2949   -2  12   2
                73.19          1.40        1.2931   -3   9   3
                73.95          2.27        1.2818    6   6   1
                74.01          1.66        1.2808   -1   3   4
                74.24          3.55        1.2775    0   0   4
                74.35          1.23        1.2758   -3   3   4
                74.92          5.02        1.2676   -4   0   4
                77.29          1.02        1.2344   -7   7   1
                77.48          1.23        1.2319    4   2   3
                77.66          1.79        1.2295   -2  14   1
                80.00          8.95        1.1993   -5  11   2
                80.79          2.18        1.1895    8   0   0
                83.12          4.42        1.1621    2   0   4
                83.21          1.35        1.1611   -8   4   2
                83.67          1.18        1.1558    1  15   1
                84.24          1.19        1.1494    4   6   3
                84.29          1.45        1.1489    2  10   3
                86.44          2.72        1.1258    7   9   0
                86.73          1.07        1.1227    5  13   0
                87.52          1.11        1.1146    5   3   3
                87.78          1.83        1.1120   -6   4   4
                88.31          1.06        1.1067   -7   7   3
                88.68          1.02        1.1030    0  16   1
                89.95          1.63        1.0908    3   1   4
================================================================================
       XPOW Copyright 1993 Bob Downs, Ranjini Swaminathan and Kurt Bartelmehs
  For reference, see Downs et al. (1993) American Mineralogist 78, 1104-1107.